Energy (eV)	Intensity
3.1383	     0
3.1383	550.757
3.1383	     0
3.27445	     0
3.27445	106.443
3.27445	     0
3.28454	     0
3.28454	475.183
3.28454	     0
3.31173	     0
3.31173	41.9603
3.31173	     0
3.38076	     0
3.38076	656.535
3.38076	     0
3.46791	     0
3.46791	387.624
3.46791	     0
3.52539	     0
3.52539	200.924
3.52539	     0
3.53795	     0
3.53795	171.961
3.53795	     0
3.56063	     0
3.56063	241.766
3.56063	     0
3.59677	     0
3.59677	41.6637
3.59677	     0
3.60927	     0
3.60927	183.009
3.60927	     0
3.64195	     0
3.64195	73.4685
3.64195	     0
3.66754	     0
3.66754	541.956
3.66754	     0
3.67179	     0
3.67179	147.203
3.67179	     0
3.70056	     0
3.70056	713.343
3.70056	     0
3.71091	     0
3.71091	13.1349
3.71091	     0
3.73132	     0
3.73132	879.467
3.73132	     0
3.74964	     0
3.74964	171.774
3.74964	     0
3.77441	     0
3.77441	231.725
3.77441	     0
3.78337	     0
3.78337	373.998
3.78337	     0
3.78757	     0
3.78757	441.726
3.78757	     0
3.80148	     0
3.80148	206.494
3.80148	     0
3.82257	     0
3.82257	299.23
3.82257	     0
3.83429	     0
3.83429	27.7293
3.83429	     0
3.83772	     0
3.83772	510.275
3.83772	     0
3.86148	     0
3.86148	1021.3
3.86148	     0
3.86482	     0
3.86482	153.454
3.86482	     0
3.91107	     0
3.91107	498.517
3.91107	     0
3.93549	     0
3.93549	97.5216
3.93549	     0
3.94886	     0
3.94886	250.716
3.94886	     0
3.9625	     0
3.9625	499.638
3.9625	     0
3.96797	     0
3.96797	104.432
3.96797	     0
3.98752	     0
3.98752	201.133
3.98752	     0
3.99828	     0
3.99828	65.2943
3.99828	     0
4.00771	     0
4.00771	160.203
4.00771	     0
4.02546	     0
4.02546	433.899
4.02546	     0
4.03461	     0
4.03461	254.784
4.03461	     0
4.04248	     0
4.04248	358.696
4.04248	     0
4.04653	     0
4.04653	28.0938
4.04653	     0
4.05602	     0
4.05602	85.4585
4.05602	     0
4.0691	     0
4.0691	333.003
4.0691	     0
4.08046	     0
4.08046	46.5616
4.08046	     0
4.0882	     0
4.0882	143.993
4.0882	     0
4.10329	     0
4.10329	514.677
4.10329	     0
4.10654	     0
4.10654	511.105
4.10654	     0
4.11531	     0
4.11531	152.476
4.11531	     0
4.12333	     0
4.12333	57.1099
4.12333	     0
4.14263	     0
4.14263	268.765
4.14263	     0
4.14925	     0
4.14925	54.3697
4.14925	     0
4.15538	     0
4.15538	193.684
4.15538	     0
4.16229	     0
4.16229	161.635
4.16229	     0
4.16679	     0
4.16679	43.8943
4.16679	     0
4.17856	     0
4.17856	119.956
4.17856	     0
4.19173	     0
4.19173	1082.91
4.19173	     0
4.2066	     0
4.2066	58.9424
4.2066	     0
4.21421	     0
4.21421	440.743
4.21421	     0
4.2216	     0
4.2216	59.9525
4.2216	     0
4.23311	     0
4.23311	501.015
4.23311	     0
4.24404	     0
4.24404	182.165
4.24404	     0
4.24922	     0
4.24922	418.287
4.24922	     0
4.26563	     0
4.26563	139.221
4.26563	     0
4.26916	     0
4.26916	302.888
4.26916	     0
4.28295	     0
4.28295	163.831
4.28295	     0
4.28801	     0
4.28801	115.912
4.28801	     0
4.29432	     0
4.29432	240.091
4.29432	     0
4.30154	     0
4.30154	205.317
4.30154	     0
4.31436	     0
4.31436	94.3069
4.31436	     0
4.3192	     0
4.3192	354.221
4.3192	     0
4.33513	     0
4.33513	14.6935
4.33513	     0
4.3411	     0
4.3411	389.581
4.3411	     0
4.34765	     0
4.34765	232.369
4.34765	     0
4.35833	     0
4.35833	86.2686
4.35833	     0
4.36433	     0
4.36433	367.301
4.36433	     0
 4.367	     0
 4.367	218.429
 4.367	     0
4.37851	     0
4.37851	144.929
4.37851	     0
4.3904	     0
4.3904	550.091
4.3904	     0
4.39302	     0
4.39302	533.684
4.39302	     0
4.40632	     0
4.40632	482.786
4.40632	     0
4.41444	     0
4.41444	188.993
4.41444	     0
4.42739	     0
4.42739	122.085
4.42739	     0
4.43573	     0
4.43573	255.266
4.43573	     0
4.44625	     0
4.44625	1246.1
4.44625	     0
4.45313	     0
4.45313	322.358
4.45313	     0
4.45997	     0
4.45997	1300.33
4.45997	     0
4.46525	     0
4.46525	381.06
4.46525	     0
4.47439	     0
4.47439	149.212
4.47439	     0
4.48024	     0
4.48024	46.2273
4.48024	     0
4.48741	     0
4.48741	1077.84
4.48741	     0
4.49578	     0
4.49578	240.982
4.49578	     0
4.49997	     0
4.49997	433.891
4.49997	     0
4.50643	     0
4.50643	929.342
4.50643	     0
4.51709	     0
4.51709	528.278
4.51709	     0
4.53002	     0
4.53002	485.36
4.53002	     0
4.53566	     0
4.53566	139.92
4.53566	     0
4.54563	     0
4.54563	926.917
4.54563	     0
4.55315	     0
4.55315	138.389
4.55315	     0
4.57349	     0
4.57349	104.363
4.57349	     0
4.57683	     0
4.57683	109.515
4.57683	     0
4.58331	     0
4.58331	322.328
4.58331	     0
4.58862	     0
4.58862	55.639
4.58862	     0
4.59351	     0
4.59351	375.932
4.59351	     0
4.59854	     0
4.59854	365.155
4.59854	     0
4.61415	     0
4.61415	541.601
4.61415	     0
4.61637	     0
4.61637	131.47
4.61637	     0
4.62502	     0
4.62502	184.216
4.62502	     0
4.62938	     0
4.62938	37.0534
4.62938	     0
4.63788	     0
4.63788	106.554
4.63788	     0
4.64119	     0
4.64119	292.137
4.64119	     0
4.65781	     0
4.65781	282.764
4.65781	     0
4.66492	     0
4.66492	137.618
4.66492	     0
4.67551	     0
4.67551	452.872
4.67551	     0
4.68344	     0
4.68344	25.3919
4.68344	     0
4.69221	     0
4.69221	10.9735
4.69221	     0
4.69774	     0
4.69774	238.947
4.69774	     0
4.69986	     0
4.69986	195.149
4.69986	     0
4.71212	     0
4.71212	113.475
4.71212	     0
4.71286	     0
4.71286	252.834
4.71286	     0
4.72612	     0
4.72612	322.181
4.72612	     0
4.72867	     0
4.72867	410.204
4.72867	     0
4.73861	     0
4.73861	390.257
4.73861	     0
4.76346	     0
4.76346	55.1704
4.76346	     0
4.76715	     0
4.76715	968.358
4.76715	     0
4.76996	     0
4.76996	441.03
4.76996	     0
4.77601	     0
4.77601	153.188
4.77601	     0
4.78391	     0
4.78391	777.691
4.78391	     0
4.79914	     0
4.79914	210.259
4.79914	     0
4.79944	     0
4.79944	288.843
4.79944	     0
4.81191	     0
4.81191	47.993
4.81191	     0
4.82667	     0
4.82667	287.197
4.82667	     0
4.83009	     0
4.83009	142.966
4.83009	     0
4.83747	     0
4.83747	17.7465
4.83747	     0
4.84514	     0
4.84514	315.33
4.84514	     0
4.8521	     0
4.8521	413.241
4.8521	     0
4.85937	     0
4.85937	380.862
4.85937	     0
4.86422	     0
4.86422	157.11
4.86422	     0
4.86665	     0
4.86665	125.31
4.86665	     0
4.87466	     0
4.87466	290.277
4.87466	     0
4.88503	     0
4.88503	136.582
4.88503	     0
4.8978	     0
4.8978	215.179
4.8978	     0
4.89948	     0
4.89948	404.93
4.89948	     0
4.9092	     0
4.9092	124.362
4.9092	     0
4.91513	     0
4.91513	127.524
4.91513	     0
4.92129	     0
4.92129	394.544
4.92129	     0
4.92409	     0
4.92409	915.394
4.92409	     0
4.93711	     0
4.93711	270.132
4.93711	     0
4.9537	     0
4.9537	87.0947
4.9537	     0
4.95916	     0
4.95916	64.8199
4.95916	     0
4.96198	     0
4.96198	63.3871
4.96198	     0
4.97235	     0
4.97235	860.447
4.97235	     0
4.9751	     0
4.9751	105.581
4.9751	     0
4.98229	     0
4.98229	365.47
4.98229	     0
4.99525	     0
4.99525	34.8229
4.99525	     0
4.99922	     0
4.99922	346.152
4.99922	     0
5.02031	     0
5.02031	241.957
5.02031	     0
5.02727	     0
5.02727	413.478
5.02727	     0
5.03432	     0
5.03432	45.6243
5.03432	     0
5.03728	     0
5.03728	139.426
5.03728	     0
5.04395	     0
5.04395	217.401
5.04395	     0
5.06168	     0
5.06168	249.737
5.06168	     0
5.06271	     0
5.06271	387.132
5.06271	     0
5.06903	     0
5.06903	347.098
5.06903	     0
5.0747	     0
5.0747	24.6462
5.0747	     0
5.07752	     0
5.07752	849.625
5.07752	     0
5.0855	     0
5.0855	1183.17
5.0855	     0
5.10608	     0
5.10608	164.625
5.10608	     0
5.10924	     0
5.10924	64.1203
5.10924	     0
5.1248	     0
5.1248	153.142
5.1248	     0
5.13463	     0
5.13463	247.39
5.13463	     0
5.16183	     0
5.16183	152.062
5.16183	     0
5.1665	     0
5.1665	57.9952
5.1665	     0
5.18223	     0
5.18223	58.6527
5.18223	     0
5.18879	     0
5.18879	63.722
5.18879	     0
5.19899	     0
5.19899	74.3171
5.19899	     0
5.20582	     0
5.20582	214.914
5.20582	     0
5.20779	     0
5.20779	25.1297
5.20779	     0
5.21677	     0
5.21677	87.911
5.21677	     0
5.22456	     0
5.22456	52.0307
5.22456	     0
5.22582	     0
5.22582	38.9521
5.22582	     0
5.24003	     0
5.24003	257.847
5.24003	     0
5.24716	     0
5.24716	150.835
5.24716	     0
5.25027	     0
5.25027	   374
5.25027	     0
5.25807	     0
5.25807	142.849
5.25807	     0
5.27161	     0
5.27161	23.0289
5.27161	     0
5.27506	     0
5.27506	47.6725
5.27506	     0
5.28855	     0
5.28855	232.142
5.28855	     0
5.29623	     0
5.29623	291.474
5.29623	     0
5.31137	     0
5.31137	581.732
5.31137	     0
5.31484	     0
5.31484	627.236
5.31484	     0
5.33351	     0
5.33351	233.796
5.33351	     0
5.34808	     0
5.34808	74.7141
5.34808	     0
5.36099	     0
5.36099	 48.67
5.36099	     0
5.37242	     0
5.37242	90.8045
5.37242	     0
5.39123	     0
5.39123	63.8043
5.39123	     0
5.40084	     0
5.40084	113.249
5.40084	     0
5.41052	     0
5.41052	975.411
5.41052	     0
5.42922	     0
5.42922	332.369
5.42922	     0
5.44628	     0
5.44628	659.424
5.44628	     0
5.45177	     0
5.45177	79.0843
5.45177	     0
5.4701	     0
5.4701	103.088
5.4701	     0
5.49304	     0
5.49304	199.604
5.49304	     0
