Energy (eV)	Intensity
2.48464	     0
2.48464	468.482
2.48464	     0
2.72154	     0
2.72154	209.588
2.72154	     0
2.95096	     0
2.95096	282.358
2.95096	     0
3.03555	     0
3.03555	235.926
3.03555	     0
3.09381	     0
3.09381	241.052
3.09381	     0
3.11778	     0
3.11778	394.492
3.11778	     0
3.13003	     0
3.13003	400.248
3.13003	     0
3.14705	     0
3.14705	141.959
3.14705	     0
3.19424	     0
3.19424	475.194
3.19424	     0
3.21852	     0
3.21852	56.7105
3.21852	     0
3.24097	     0
3.24097	105.775
3.24097	     0
3.27951	     0
3.27951	787.933
3.27951	     0
3.28553	     0
3.28553	166.268
3.28553	     0
3.31666	     0
3.31666	110.231
3.31666	     0
3.34049	     0
3.34049	168.041
3.34049	     0
3.34695	     0
3.34695	677.357
3.34695	     0
3.38251	     0
3.38251	450.687
3.38251	     0
3.40193	     0
3.40193	660.467
3.40193	     0
3.43038	     0
3.43038	168.129
3.43038	     0
3.45005	     0
3.45005	164.053
3.45005	     0
3.48062	     0
3.48062	92.5615
3.48062	     0
3.49754	     0
3.49754	 156.6
3.49754	     0
3.50599	     0
3.50599	145.194
3.50599	     0
3.53671	     0
3.53671	224.339
3.53671	     0
3.54802	     0
3.54802	174.221
3.54802	     0
3.5653	     0
3.5653	394.23
3.5653	     0
3.57547	     0
3.57547	90.1787
3.57547	     0
3.58836	     0
3.58836	380.111
3.58836	     0
3.59351	     0
3.59351	76.7888
3.59351	     0
3.61773	     0
3.61773	455.896
3.61773	     0
3.6229	     0
3.6229	145.762
3.6229	     0
3.64241	     0
3.64241	542.032
3.64241	     0
3.64995	     0
3.64995	161.059
3.64995	     0
3.67223	     0
3.67223	334.223
3.67223	     0
3.69206	     0
3.69206	169.745
3.69206	     0
3.69485	     0
3.69485	417.986
3.69485	     0
3.71605	     0
3.71605	80.2677
3.71605	     0
3.7268	     0
3.7268	81.1987
3.7268	     0
3.73939	     0
3.73939	22.9758
3.73939	     0
3.74488	     0
3.74488	258.36
3.74488	     0
3.75944	     0
3.75944	1650.06
3.75944	     0
3.7702	     0
3.7702	352.063
3.7702	     0
3.7823	     0
3.7823	448.555
3.7823	     0
3.7958	     0
3.7958	389.937
3.7958	     0
3.80355	     0
3.80355	32.0657
3.80355	     0
3.81008	     0
3.81008	310.191
3.81008	     0
3.82564	     0
3.82564	207.046
3.82564	     0
3.83198	     0
3.83198	327.258
3.83198	     0
 3.852	     0
 3.852	786.396
 3.852	     0
3.86317	     0
3.86317	625.516
3.86317	     0
3.8662	     0
3.8662	 103.7
3.8662	     0
3.87549	     0
3.87549	151.487
3.87549	     0
3.88925	     0
3.88925	297.495
3.88925	     0
3.89779	     0
3.89779	676.566
3.89779	     0
3.90519	     0
3.90519	1235.32
3.90519	     0
3.91883	     0
3.91883	318.684
3.91883	     0
3.93714	     0
3.93714	199.907
3.93714	     0
3.94732	     0
3.94732	87.9696
3.94732	     0
3.96196	     0
3.96196	22.8106
3.96196	     0
3.97392	     0
3.97392	473.076
3.97392	     0
3.97407	     0
3.97407	19.7865
3.97407	     0
3.99295	     0
3.99295	783.176
3.99295	     0
3.9988	     0
3.9988	1352.58
3.9988	     0
4.00116	     0
4.00116	137.586
4.00116	     0
4.0075	     0
4.0075	883.349
4.0075	     0
4.02404	     0
4.02404	294.337
4.02404	     0
4.03267	     0
4.03267	851.48
4.03267	     0
4.04686	     0
4.04686	633.719
4.04686	     0
4.05174	     0
4.05174	81.5888
4.05174	     0
4.06382	     0
4.06382	618.735
4.06382	     0
 4.077	     0
 4.077	163.825
 4.077	     0
4.09008	     0
4.09008	462.644
4.09008	     0
4.11455	     0
4.11455	95.8534
4.11455	     0
4.1179	     0
4.1179	311.564
4.1179	     0
4.12519	     0
4.12519	863.156
4.12519	     0
4.12985	     0
4.12985	502.446
4.12985	     0
4.15475	     0
4.15475	56.6956
4.15475	     0
4.17587	     0
4.17587	474.975
4.17587	     0
4.18261	     0
4.18261	413.305
4.18261	     0
4.19245	     0
4.19245	397.002
4.19245	     0
4.20897	     0
4.20897	797.837
4.20897	     0
4.21535	     0
4.21535	40.0414
4.21535	     0
4.21846	     0
4.21846	167.696
4.21846	     0
4.22749	     0
4.22749	272.843
4.22749	     0
4.24007	     0
4.24007	119.77
4.24007	     0
4.26275	     0
4.26275	736.509
4.26275	     0
4.26883	     0
4.26883	 590.9
4.26883	     0
 4.275	     0
 4.275	275.533
 4.275	     0
4.29642	     0
4.29642	225.215
4.29642	     0
4.30943	     0
4.30943	367.617
4.30943	     0
4.31206	     0
4.31206	2.59973
4.31206	     0
4.32663	     0
4.32663	956.17
4.32663	     0
4.34855	     0
4.34855	269.176
4.34855	     0
4.35555	     0
4.35555	439.732
4.35555	     0
4.36774	     0
4.36774	293.048
4.36774	     0
4.37843	     0
4.37843	184.08
4.37843	     0
4.38934	     0
4.38934	278.442
4.38934	     0
4.39953	     0
4.39953	621.668
4.39953	     0
4.41232	     0
4.41232	411.422
4.41232	     0
4.41957	     0
4.41957	165.105
4.41957	     0
4.42222	     0
4.42222	109.285
4.42222	     0
4.43725	     0
4.43725	224.206
4.43725	     0
4.44799	     0
4.44799	161.207
4.44799	     0
4.45083	     0
4.45083	184.259
4.45083	     0
4.45682	     0
4.45682	98.7997
4.45682	     0
4.47319	     0
4.47319	58.3585
4.47319	     0
4.47492	     0
4.47492	345.251
4.47492	     0
4.4779	     0
4.4779	618.291
4.4779	     0
4.49865	     0
4.49865	126.638
4.49865	     0
4.50959	     0
4.50959	273.458
4.50959	     0
4.5263	     0
4.5263	671.21
4.5263	     0
4.53156	     0
4.53156	15.4723
4.53156	     0
4.54253	     0
4.54253	259.663
4.54253	     0
4.55938	     0
4.55938	638.666
4.55938	     0
4.56368	     0
4.56368	206.265
4.56368	     0
4.57411	     0
4.57411	277.244
4.57411	     0
4.58572	     0
4.58572	46.9197
4.58572	     0
4.60387	     0
4.60387	457.229
4.60387	     0
4.61612	     0
4.61612	595.657
4.61612	     0
4.63584	     0
4.63584	178.574
4.63584	     0
4.6461	     0
4.6461	92.4098
4.6461	     0
4.66251	     0
4.66251	170.854
4.66251	     0
4.67004	     0
4.67004	865.221
4.67004	     0
4.68559	     0
4.68559	226.158
4.68559	     0
4.69011	     0
4.69011	604.213
4.69011	     0
4.69336	     0
4.69336	30.7752
4.69336	     0
4.70009	     0
4.70009	35.0063
4.70009	     0
4.71294	     0
4.71294	712.442
4.71294	     0
4.72862	     0
4.72862	329.788
4.72862	     0
4.74055	     0
4.74055	 209.3
4.74055	     0
4.75282	     0
4.75282	163.582
4.75282	     0
4.7768	     0
4.7768	95.0211
4.7768	     0
4.79489	     0
4.79489	609.238
4.79489	     0
4.79939	     0
4.79939	260.667
4.79939	     0
4.81931	     0
4.81931	20.8698
4.81931	     0
4.82822	     0
4.82822	377.064
4.82822	     0
4.84839	     0
4.84839	113.478
4.84839	     0
4.8763	     0
4.8763	58.8216
4.8763	     0
4.88524	     0
4.88524	908.967
4.88524	     0
4.91952	     0
4.91952	446.992
4.91952	     0
4.93023	     0
4.93023	165.279
4.93023	     0
4.95503	     0
4.95503	129.721
4.95503	     0
4.98766	     0
4.98766	121.571
4.98766	     0
5.00286	     0
5.00286	281.282
5.00286	     0
5.04094	     0
5.04094	63.5304
5.04094	     0
5.05683	     0
5.05683	201.787
5.05683	     0
5.08398	     0
5.08398	16.6692
5.08398	     0
5.14319	     0
5.14319	432.466
5.14319	     0
5.22042	     0
5.22042	102.233
5.22042	     0
5.23006	     0
5.23006	13.8975
5.23006	     0
5.25134	     0
5.25134	52.9492
5.25134	     0
5.30194	     0
5.30194	108.063
5.30194	     0
5.34849	     0
5.34849	170.98
5.34849	     0
5.43079	     0
5.43079	157.707
5.43079	     0
5.45718	     0
5.45718	194.925
5.45718	     0
5.48641	     0
5.48641	400.664
5.48641	     0
5.50812	     0
5.50812	289.327
5.50812	     0
5.5319	     0
5.5319	52.7751
5.5319	     0
5.64724	     0
5.64724	69.3496
5.64724	     0
5.6739	     0
5.6739	253.82
5.6739	     0
5.69914	     0
5.69914	14.598
5.69914	     0
5.75667	     0
5.75667	130.141
5.75667	     0
5.76875	     0
5.76875	 222.8
5.76875	     0
5.81663	     0
5.81663	177.053
5.81663	     0
5.86136	     0
5.86136	234.807
5.86136	     0
10.3005	     0
10.3005	374.006
10.3005	     0
10.4656	     0
10.4656	786.54
10.4656	     0
10.5846	     0
10.5846	43.4951
10.5846	     0
10.6418	     0
10.6418	 208.7
10.6418	     0
10.654	     0
10.654	47.8899
10.654	     0
10.7138	     0
10.7138	541.118
10.7138	     0
10.7831	     0
10.7831	921.176
10.7831	     0
10.8104	     0
10.8104	640.238
10.8104	     0
10.8683	     0
10.8683	441.496
10.8683	     0
10.9362	     0
10.9362	256.791
10.9362	     0
10.9487	     0
10.9487	134.177
10.9487	     0
10.9838	     0
10.9838	185.473
10.9838	     0
10.9922	     0
10.9922	56.5182
10.9922	     0
 11.03	     0
 11.03	229.771
 11.03	     0
11.0559	     0
11.0559	166.937
11.0559	     0
11.0688	     0
11.0688	38.1544
11.0688	     0
11.0902	     0
11.0902	548.441
11.0902	     0
11.1132	     0
11.1132	135.295
11.1132	     0
11.169	     0
11.169	40.6577
11.169	     0
11.2109	     0
11.2109	496.978
11.2109	     0
11.234	     0
11.234	62.4404
11.234	     0
11.3077	     0
11.3077	221.078
11.3077	     0
11.3173	     0
11.3173	227.057
11.3173	     0
11.4079	     0
11.4079	142.168
11.4079	     0
11.4177	     0
11.4177	98.726
11.4177	     0
11.4411	     0
11.4411	51.8413
11.4411	     0
11.4672	     0
11.4672	55.4968
11.4672	     0
11.4867	     0
11.4867	94.8245
11.4867	     0
11.5171	     0
11.5171	138.798
11.5171	     0
11.5331	     0
11.5331	94.6402
11.5331	     0
11.5548	     0
11.5548	78.9346
11.5548	     0
11.7019	     0
11.7019	53.8106
11.7019	     0
11.7103	     0
11.7103	231.05
11.7103	     0
11.719	     0
11.719	82.2263
11.719	     0
